# Output from "simple" SuperMix based program
# Scanning LO_POWER from 1.000000 to 350.000000 nW in steps of 1.000000 nW
#
# FREQUENCY 217.000000 GHz
# BIAS 2.300000 mV
# LO_POWER 100.000000 nW
#
# IF_FREQ 5.000000 GHz
# Data from mixer.conf
#
# TEMP 4.200000 K
# Z0 20.000000 Ohms
# IF_Z0 20.000000 Ohms
# HARMONICS 3
#
# IV_CURVE unpump_1_4-2K_spline.IV
# KK_CURVE unpump_1_4-2K_spline.KK
# RNA 20.000000 Ohm*um^2
# SCAP 65.000000 fF/um^2
# AREA 1.000000 um^2
# VGAP 2.790000 mV
#
# FILTER_INPUT 129.000000 2.950000
# FILT_INPUT 71.000000 1.900000
# FILT_CENTRE 180.000000 2.370000
# FILT_CAP 34.500000 fF
# TUNER_INPUT 129.000000 2.950000
# IF_OUT_STRIP 129.000000 2.950000
# IF_CONNECTION SIS_singleEnded_IF_v6_20.s2p
# TUNER_TYPE BEL_WITH_RFCHOKE
# BELITSKY_INPUT_STRIP 158.000000 5.200000 0.425000
# BELITSKY_TUNING_STRIP 54.500000 1.900000 0.425000
# RF_CHOKE_TYPE FILTER
# FILTER_CHOKE_SECTIONS 6
# FILTER_CHOKE_INPUT 112.000000 1.900000
# FILTER_CHOKE_LINE1 52.400000 13.000000
# FILTER_CHOKE_LINE2 152.000000 1.900000
# FILTER_CHOKE_LINE3 108.000000 4.510000
# FILTER_CHOKE_LINE4 150.500000 1.900000
# FILTER_CHOKE_LINE5 94.300000 8.100000
# FILTER_CHOKE_LINE6 118.400000 1.900000
# FILTER_CHOKE_OUTPUT 129.000000 3.500000
#
# TOP_DEFAULT NB
# TOP_THICKNESS 4000.000000
# GROUND_DEFAULT NB
# GROUND_THICKNESS 4000.000000
# INSUL_DEFAULT SIO
# INSUL_THICKNESS 4250.000000
# COVER_DEFAULT AIR
# COVER_THICKNESS 100000.000000
#
# NB_PROPERTIES 3.050000 9.400000 5.000000
# NBTIN_PROPERTIES 5.000000 15.750000 30.000000
# SIO_PROPERTIES 5.800000 0.000000
# AIR_PROPERTIES 1.000000 0.000000
#
# End of configuration file data
# 
# building the mixer...
# building tuner...
# tuner complete
# building IV curves...
# IV curves complete
# IF Circuit Size : 3
# built mixer
# Junction 1 LO Embedding Impedance : 0.327594+-0.146825i
# Junction 2 LO Embedding Impedance : 0.774560+-1.124334i
# 
# Junction 1 IF Embedding Impedance : 0.364607+0.092294i
# Junction 2 IF Embedding Impedance : 0.247968+0.720613i
# 
# Junction 1 LSB Embedding Impedance : 0.326348+-0.141811i
# Junction 2 LSB Embedding Impedance : 0.918194+-1.143435i
# 
# Junction 1 USB Embedding Impedance : 0.330001+-0.149480i
# Junction 2 USB Embedding Impedance : 0.657066+-1.097113i
# 
# Results:
#
# LO_POWER (nW)| LSB Gain | USB Gain | IF Output 0K (K)| IF Output 77K (K)| IF Output 297K (K)| DC Current (junc 1) (uA)| DC Current (junc 2) (uA)
1.000000      0.021330      0.020333      4.551825      7.548348      16.711928      10.049718      9.801969
2.000000      0.042469      0.040493      4.800046      10.767597      29.016955      10.685224      10.193352
3.000000      0.063413      0.060477      5.046833      13.959413      41.215201      11.316844      10.584464
4.000000      0.084160      0.080279      5.292133      17.123244      53.304580      11.944596      10.975308
5.000000      0.104706      0.099899      5.535893      20.258541      65.283030      12.568496      11.365888
6.000000      0.125047      0.119331      5.778060      23.364765      77.148512      13.188562      11.756208
7.000000      0.145181      0.138574      6.018582      26.441382      88.899016      13.804809      12.146272
8.000000      0.165104      0.157623      6.257407      29.487867      100.532564      14.417253      12.536084
9.000000      0.184814      0.176475      6.494486      32.503702      112.047207      15.025912      12.925646
10.000000      0.204308      0.195128      6.729768      35.488380      123.441035      15.630802      13.314962
11.000000      0.223582      0.213579      6.963204      38.441404      134.712174      16.231937      13.704034
12.000000      0.242633      0.231824      7.194745      41.362286      145.858789      16.829335      14.092865
13.000000      0.261460      0.249860      7.424344      44.250549      156.879086      17.423010      14.481458
14.000000      0.280058      0.267685      7.651955      47.105727      167.771315      18.012978      14.869814
15.000000      0.298427      0.285297      7.877530      49.927368      178.533772      18.599254      15.257937
16.000000      0.316562      0.302691      8.101026      52.715030      189.164800      19.181854      15.645828
17.000000      0.334462      0.319867      8.322399      55.468284      199.662788      19.760793      16.033488
18.000000      0.352124      0.336820      8.541606      58.186715      210.026176      20.336085      16.420919
19.000000      0.369545      0.353549      8.758604      60.869920      220.253456      20.907746      16.808124
20.000000      0.386724      0.370052      8.973354      63.517511      230.343172      21.475790      17.195101
21.000000      0.403659      0.386326      9.185816      66.129114      240.293921      22.040232      17.581854
22.000000      0.420347      0.402368      9.395952      68.704369      250.104355      22.601087      17.968383
23.000000      0.436786      0.418178      9.603723      71.242929      259.773181      23.158368      18.354687
24.000000      0.452975      0.433753      9.809094      73.744464      269.299162      23.712090      18.740769
25.000000      0.468912      0.449090      10.012030      76.208657      278.681120      24.262268      19.126627
26.000000      0.484595      0.464189      10.212497      78.635209      287.917933      24.808915      19.512263
27.000000      0.500022      0.479048      10.410464      81.023833      297.008537      25.352046      19.897675
28.000000      0.515192      0.493664      10.605897      83.374259      305.951928      25.891674      20.282865
29.000000      0.530104      0.508037      10.798768      85.686232      314.747159      26.427813      20.667831
30.000000      0.544757      0.522164      10.989048      87.959513      323.393346      26.960478      21.052572
31.000000      0.559148      0.536046      11.176708      90.193879      331.889660      27.489681      21.437089
32.000000      0.573278      0.549680      11.361724      92.389122      340.235335      28.015436      21.821379
33.000000      0.587145      0.563065      11.544069      94.545048      348.429664      28.537757      22.205443
34.000000      0.600748      0.576200      11.723721      96.661483      356.471999      29.056657      22.589278
35.000000      0.614086      0.589085      11.900657      98.738264      364.361751      29.572151      22.972883
36.000000      0.627159      0.601718      12.074855      100.775247      372.098394      30.084250      23.356257
37.000000      0.639967      0.614099      12.246296      102.772301      379.681455      30.592968      23.739397
38.000000      0.652508      0.626227      12.414962      104.729313      387.110525      31.098319      24.122302
39.000000      0.664782      0.638102      12.580834      106.646182      394.385252      31.600315      24.504969
40.000000      0.676789      0.649723      12.743898      108.522825      401.505341      32.098971      24.887396
41.000000      0.688529      0.661090      12.904138      110.359174      408.470556      32.594298      25.269581
42.000000      0.700002      0.672202      13.061540      112.155174      415.280716      33.086310      25.651520
43.000000      0.711207      0.683059      13.216093      113.910786      421.935698      33.575020      26.033212
44.000000      0.722145      0.693662      13.367786      115.625987      428.435436      34.060440      26.414652
45.000000      0.732816      0.704010      13.516608      117.300767      434.779915      34.542584      26.795838
46.000000      0.743219      0.714103      13.662552      118.935129      440.969178      35.021464      27.176766
47.000000      0.753356      0.723942      13.805609      120.529093      447.003320      35.497094      27.557433
48.000000      0.763227      0.733527      13.945774      122.082691      452.882489      35.969485      27.937835
49.000000      0.772832      0.742858      14.083041      123.595969      458.606885      36.438652      28.317968
50.000000      0.782172      0.751935      14.217408      125.068986      464.176758      36.904605      28.697828
51.000000      0.791248      0.760760      14.348870      126.501815      469.592410      37.367359      29.077411
52.000000      0.800059      0.769332      14.477428      127.894542      474.854190      37.826925      29.456712
53.000000      0.808608      0.777652      14.603079      129.247264      479.962495      38.283316      29.835727
54.000000      0.816895      0.785722      14.725826      130.560094      484.917772      38.736546      30.214451
55.000000      0.824921      0.793542      14.845669      131.833153      489.720512      39.186626      30.592880
56.000000      0.832687      0.801112      14.962612      133.066576      494.371252      39.633569      30.971007
57.000000      0.840194      0.808435      15.076658      134.260510      498.870571      40.077388      31.348828
58.000000      0.847444      0.815510      15.187812      135.415113      503.219094      40.518096      31.726338
59.000000      0.854437      0.822339      15.296081      136.530553      507.417486      40.955704      32.103530
60.000000      0.861175      0.828923      15.401472      137.607010      511.466453      41.390225      32.480400
61.000000      0.867659      0.835264      15.503991      138.644675      515.366742      41.821672      32.856940
62.000000      0.873891      0.841362      15.603648      139.643748      519.119138      42.250057      33.233146
63.000000      0.879873      0.847220      15.700453      140.604439      522.724463      42.675394      33.609011
64.000000      0.885605      0.852838      15.794417      141.526969      526.183576      43.097693      33.984528
65.000000      0.891090      0.858218      15.885551      142.411566      529.497372      43.516969      34.359691
66.000000      0.896328      0.863361      15.973868      143.258470      532.666779      43.933233      34.734493
67.000000      0.901323      0.868269      16.059380      144.067928      535.692759      44.346498      35.108928
68.000000      0.906076      0.872945      16.142103      144.840195      538.576307      44.756776      35.482987
69.000000      0.910587      0.877388      16.222051      145.575536      541.318447      45.164081      35.856665
70.000000      0.914861      0.881602      16.299240      146.274224      543.920234      45.568423      36.229953
71.000000      0.918897      0.885587      16.373687      146.936537      546.382752      45.969817      36.602844
72.000000      0.922699      0.889347      16.445409      147.562764      548.707114      46.368275      36.975331
73.000000      0.926268      0.892882      16.514424      148.153197      550.894454      46.763808      37.347405
74.000000      0.929607      0.896195      16.580751      148.708140      552.945942      47.156430      37.719059
75.000000      0.932717      0.899287      16.644410      149.227899      554.862766      47.546154      38.090284
76.000000      0.935600      0.902161      16.705420      149.712790      556.646137      47.932991      38.461072
77.000000      0.938259      0.904818      16.763803      150.163132      558.297290      48.316955      38.831414
78.000000      0.940696      0.907261      16.819580      150.579251      559.817484      48.698058      39.201302
79.000000      0.942914      0.909492      16.872773      150.961480      561.207996      49.076313      39.570727
80.000000      0.944914      0.911512      16.923406      151.310155      562.470123      49.451732      39.939680
81.000000      0.946698      0.913325      16.971502      151.625618      563.605183      49.824329      40.308151
82.000000      0.948270      0.914931      17.017084      151.908218      564.614509      50.194115      40.676132
83.000000      0.949631      0.916335      17.060178      152.158304      565.499454      50.561104      41.043614
84.000000      0.950783      0.917536      17.100807      152.376234      566.261386      50.925308      41.410586
85.000000      0.951730      0.918539      17.139000      152.562368      566.901688      51.286740      41.777038
86.000000      0.952474      0.919345      17.174780      152.717070      567.421758      51.645413      42.142962
87.000000      0.953016      0.919957      17.208175      152.840708      567.823007      52.001339      42.508346
88.000000      0.953360      0.920377      17.239213      152.933654      568.106859      52.354532      42.873181
89.000000      0.953508      0.920607      17.267921      152.996282      568.274752      52.705005      43.237456
90.000000      0.953462      0.920649      17.294327      153.028970      568.328135      53.052769      43.601161
91.000000      0.953225      0.920507      17.318459      153.032101      568.268463      53.397838      43.964285
92.000000      0.952800      0.920182      17.340348      153.006057      568.097208      53.740226      44.326818
93.000000      0.952189      0.919676      17.360022      152.951224      567.815846      54.079944      44.688747
94.000000      0.951394      0.918994      17.377512      152.867993      567.425865      54.417007      45.050063
95.000000      0.950419      0.918135      17.392847      152.756754      566.928759      54.751426      45.410754
96.000000      0.949265      0.917104      17.406059      152.617899      566.326029      55.083215      45.770809
97.000000      0.947935      0.915903      17.417178      152.451825      565.619185      55.412387      46.130216
98.000000      0.946432      0.914534      17.426237      152.258929      564.809741      55.738956      46.488963
99.000000      0.944759      0.913000      17.433266      152.039608      563.899217      56.062933      46.847039
100.000000      0.942918      0.911302      17.438299      151.794264      562.889138      56.384333      47.204432
101.000000      0.940911      0.909445      17.441369      151.523297      561.781035      56.703168      47.561129
102.000000      0.938742      0.907429      17.442507      151.227110      560.576442      57.019451      47.917119
103.000000      0.936412      0.905259      17.441747      150.906108      559.276895      57.333197      48.272389
104.000000      0.933925      0.902935      17.439123      150.560694      557.883935      57.644418      48.626927
105.000000      0.931283      0.900461      17.434669      150.191275      556.399105      57.953126      48.980720
106.000000      0.928489      0.897839      17.428420      149.798258      554.823950      58.259337      49.333756
107.000000      0.925546      0.895073      17.420409      149.382049      553.160018      58.563062      49.686020
108.000000      0.922455      0.892163      17.410671      148.943056      551.408856      58.864316      50.037502
109.000000      0.919220      0.889113      17.399242      148.481687      549.572014      59.163111      50.388186
110.000000      0.915843      0.885926      17.386157      147.998351      547.651043      59.459461      50.738061
111.000000      0.912327      0.882603      17.371452      147.493457      545.647491      59.753379      51.087113
112.000000      0.908675      0.879148      17.355163      146.967413      543.562910      60.044879      51.435328
113.000000      0.904888      0.875563      17.337325      146.420629      541.398849      60.333975      51.782693
114.000000      0.900971      0.871851      17.317976      145.853514      539.156859      60.620679      52.129194
115.000000      0.896924      0.868013      17.297153      145.266477      536.838486      60.905005      52.474818
116.000000      0.892752      0.864053      17.274892      144.659926      534.445278      61.186966      52.819550
117.000000      0.888456      0.859973      17.251230      144.034272      531.978782      61.466577      53.163376
118.000000      0.884040      0.855776      17.226205      143.389922      529.440541      61.743851      53.506282
119.000000      0.879505      0.851464      17.199855      142.727285      526.832097      62.018801      53.848255
120.000000      0.874855      0.847039      17.172217      142.046768      524.154990      62.291441      54.189279
121.000000      0.870092      0.842504      17.143330      141.348780      521.410758      62.561784      54.529341
122.000000      0.865218      0.837862      17.113232      140.633726      518.600936      62.829844      54.868425
123.000000      0.860236      0.833116      17.081962      139.902015      515.727057      63.095635      55.206518
124.000000      0.855149      0.828266      17.049558      139.154050      512.790650      63.359171      55.543604
125.000000      0.849960      0.823317      17.016059      138.390239      509.793242      63.620465      55.879668
126.000000      0.844670      0.818271      16.981505      137.610986      506.736355      63.879530      56.214697
127.000000      0.839282      0.813129      16.945934      136.816694      503.621509      64.136380      56.548675
128.000000      0.833800      0.807895      16.909387      136.007766      500.450222      64.391030      56.881586
129.000000      0.828225      0.802571      16.871903      135.184607      497.224005      64.643493      57.213416
130.000000      0.822560      0.797160      16.833521      134.347616      493.944367      64.893782      57.544150
131.000000      0.816808      0.791663      16.794282      133.497194      490.612814      65.141912      57.873772
132.000000      0.810970      0.786084      16.754225      132.633743      487.230846      65.387895      58.202268
133.000000      0.805051      0.780424      16.713392      131.757660      483.799959      65.631746      58.529621
134.000000      0.799051      0.774687      16.671822      130.869343      480.321646      65.873479      58.855817
135.000000      0.792974      0.768874      16.629556      129.969190      476.797396      66.113107      59.180840
136.000000      0.786822      0.762988      16.586634      129.057597      473.228690      66.350645      59.504674
137.000000      0.780597      0.757032      16.543097      128.134958      469.617009      66.586105      59.827305
138.000000      0.774303      0.751007      16.498987      127.201667      465.963825      66.819501      60.148715
139.000000      0.767941      0.744917      16.454343      126.258117      462.270609      67.050848      60.468891
140.000000      0.761513      0.738763      16.409207      125.304699      458.538823      67.280159      60.787816
141.000000      0.755024      0.732548      16.363620      124.341804      454.769928      67.507448      61.105474
142.000000      0.748474      0.726275      16.317623      123.369820      450.965377      67.732729      61.421850
143.000000      0.741866      0.719945      16.271257      122.389136      447.126618      67.956014      61.736929
144.000000      0.735203      0.713561      16.224562      121.400137      443.255094      68.177320      62.050694
145.000000      0.728487      0.707125      16.177582      120.403209      439.352243      68.396657      62.363129
146.000000      0.721720      0.700640      16.130355      119.398735      435.419496      68.614042      62.674220
147.000000      0.714905      0.694108      16.082924      118.387098      431.458280      68.829487      62.983950
148.000000      0.708045      0.687531      16.035330      117.368678      427.470013      69.043006      63.292304
149.000000      0.701141      0.680912      15.987613      116.343854      423.456111      69.254612      63.599266
150.000000      0.694196      0.674252      15.939815      115.313004      419.417979      69.464321      63.904820
151.000000      0.687212      0.667555      15.891977      114.276504      415.357020      69.672144      64.208951
152.000000      0.680192      0.660822      15.844139      113.234728      411.274627      69.878096      64.511643
153.000000      0.673138      0.654056      15.796342      112.188048      407.172188      70.082190      64.812881
