# Output from "simple" SuperMix based program
# Scanning IF_FREQ from 0.100000 to 50.000000 GHz in steps of 0.100000 GHz
#
# FREQUENCY 650.000000 GHz
# BIAS 2.300000 mV
# LO_POWER 50.000000 nW
#
# Data from mixer.conf
#
# TEMP 4.200000 K
# Z0 20.000000 Ohms
# IF_FREQ 1.000000 GHz
# IF_Z0 50.000000 Ohms
# HARMONICS 3
#
# IV_CURVE unpump.IV
# KK_CURVE unpump.KK
# RNA 20.000000 Ohm*um^2
# SCAP 75.000000 fF/um^2
# AREA 0.500000 um^2
# VGAP 2.770000 mV
#
# TUNER_TYPE BEL_WITH_RFCHOKE
# BELITSKY_INPUT_STRIP 65.000000 12.000000 0.475000
# BELITSKY_TUNING_STRIP 25.000000 2.500000 0.475000
# RF_CHOKE_TYPE FILTER
# FILTER_CHOKE_SECTIONS 6
# FILTER_CHOKE_INPUT 9.000000 2.500000
# FILTER_CHOKE_LINE1 42.000000 14.000000
# FILTER_CHOKE_OUTPUT 42.000000 3.000000
#
# TOP_DEFAULT NB
# TOP_THICKNESS 4000.000000
# GROUND_DEFAULT NB
# GROUND_THICKNESS 4000.000000
# INSUL_DEFAULT SIO
# INSUL_THICKNESS 4750.000000
# COVER_DEFAULT AIR
# COVER_THICKNESS 100000.000000
#
# NB_PROPERTIES 3.050000 9.400000 5.000000
# NBTIN_PROPERTIES 5.000000 15.750000 30.000000
# SIO_PROPERTIES 5.800000 0.000000
# AIR_PROPERTIES 1.000000 0.000000
#
# End of configuration file data
# 
# building the mixer...
# building tuner...
# tuner complete
# building IV curves...
# IV curves complete
# built mixer
# Junction 1 LO Embedding Impedance : 0.272761+-0.056893i
# Junction 2 LO Embedding Impedance : 0.804534+1.168748i
# 
# Junction 1 IF Embedding Impedance : 0.084116+0.129357i
# Junction 2 IF Embedding Impedance : 0.008701+0.146863i
# 
# Junction 1 LSB Embedding Impedance : 0.272562+-0.053458i
# Junction 2 LSB Embedding Impedance : 0.674423+1.105820i
# 
# Junction 1 USB Embedding Impedance : 0.272878+-0.060316i
# Junction 2 USB Embedding Impedance : 0.956995+1.220639i
# 
# Results:
#
# IF_FREQ (GHz)| LSB Gain | USB Gain | IF Output 0K (K)| IF Output 77K (K)| IF Output 297K (K)| DC Current (junc 1) (uA)| DC Current (junc 2) (uA)
0.100000      0.065438      0.065656      3.691330      4.227976      6.111721      2.984017      3.061761
0.200000      0.092292      0.092598      3.854656      4.922116      8.669132      3.088103      3.243492
0.300000      0.112726      0.113099      4.016945      5.609396      11.199246      3.191921      3.424856
0.400000      0.129808      0.130235      4.178194      6.289824      13.702108      3.295471      3.605852
0.500000      0.144732      0.145205      4.338398      6.963408      16.177769      3.398756      3.786480
0.600000      0.158108      0.158623      4.497556      7.630159      18.626281      3.501775      3.966741
0.700000      0.170303      0.170854      4.655665      8.290086      21.047701      3.604530      4.146633
0.800000      0.181555      0.182140      4.812723      8.943201      23.442089      3.707022      4.326158
0.900000      0.192030      0.192646      4.968727      9.589516      25.809507      3.809251      4.505315
1.000000      0.201850      0.202493      5.123675      10.229044      28.150023      3.911219      4.684103
1.100000      0.211106      0.211775      5.277565      10.861799      30.463705      4.012927      4.862524
1.200000      0.219870      0.220563      5.430396      11.487797      32.750625      4.114376      5.040577
1.300000      0.228199      0.228913      5.582166      12.107051      35.010860      4.215566      5.218262
1.400000      0.236138      0.236874      5.732874      12.719580      37.244487      4.316499      5.395578
1.500000      0.243727      0.244482      5.882518      13.325399      39.451590      4.417176      5.572527
1.600000      0.250998      0.251771      6.031097      13.924527      41.632251      4.517596      5.749107
1.700000      0.257978      0.258767      6.178611      14.516983      43.786558      4.617763      5.925319
1.800000      0.264689      0.265495      6.325058      15.102785      45.914602      4.717676      6.101163
1.900000      0.271153      0.271973      6.470439      15.681955      48.016475      4.817336      6.276638
2.000000      0.277387      0.278221      6.614752      16.254513      50.092274      4.916744      6.451746
2.100000      0.283406      0.284253      6.757999      16.820480      52.142096      5.015902      6.626485
2.200000      0.289225      0.290083      6.900177      17.379880      54.166043      5.114809      6.800856
2.300000      0.294854      0.295724      7.041288      17.932734      56.164218      5.213468      6.974858
2.400000      0.300306      0.301186      7.181332      18.479068      58.136727      5.311879      7.148492
2.500000      0.305590      0.306480      7.320310      19.018904      60.083679      5.410043      7.321758
2.600000      0.310715      0.311614      7.458221      19.552269      62.005184      5.507961      7.494656
2.700000      0.315689      0.316596      7.595066      20.079187      63.901358      5.605633      7.667185
2.800000      0.320520      0.321434      7.730847      20.599686      65.772314      5.703061      7.839347
2.900000      0.325213      0.326134      7.865564      21.113792      67.618171      5.800246      8.011139
3.000000      0.329776      0.330703      7.999219      21.621533      69.439049      5.897188      8.182564
3.100000      0.334213      0.335147      8.131812      22.122936      71.235070      5.993889      8.353620
3.200000      0.338531      0.339470      8.263345      22.618031      73.006360      6.090349      8.524308
3.300000      0.342733      0.343677      8.393820      23.106846      74.753043      6.186569      8.694628
3.400000      0.346826      0.347774      8.523239      23.589413      76.475250      6.282551      8.864579
3.500000      0.350811      0.351763      8.651602      24.065760      78.173110      6.378294      9.034162
3.600000      0.354695      0.355650      8.778913      24.535918      79.846755      6.473800      9.203377
3.700000      0.358480      0.359438      8.905173      24.999920      81.496320      6.569070      9.372224
3.800000      0.362169      0.363130      9.030385      25.457797      83.121941      6.664105      9.540703
3.900000      0.365766      0.366729      9.154550      25.909582      84.723756      6.758905      9.708814
4.000000      0.369274      0.370239      9.277672      26.355306      86.301903      6.853471      9.876556
4.100000      0.372696      0.373662      9.399752      26.795004      87.856524      6.947805      10.043930
4.200000      0.376035      0.377001      9.520794      27.228709      89.387762      7.041907      10.210937
4.300000      0.379292      0.380258      9.640801      27.656456      90.895761      7.135778      10.377575
4.400000      0.382471      0.383437      9.759775      28.078279      92.380666      7.229418      10.543846
4.500000      0.385573      0.386539      9.877719      28.494213      93.842625      7.322830      10.709748
4.600000      0.388601      0.389566      9.994637      28.904293      95.281786      7.416013      10.875283
4.700000      0.391557      0.392521      10.110532      29.308555      96.698298      7.508969      11.040450
4.800000      0.394443      0.395405      10.225408      29.707036      98.092314      7.601697      11.205249
4.900000      0.397260      0.398221      10.339267      30.099772      99.463984      7.694200      11.369681
5.000000      0.400011      0.400970      10.452113      30.486799      100.813464      7.786478      11.533744
5.100000      0.402697      0.403653      10.563951      30.868155      102.140907      7.878532      11.697440
5.200000      0.405319      0.406273      10.674783      31.243878      103.446469      7.970362      11.860769
5.300000      0.407880      0.408831      10.784614      31.614004      104.730307      8.061970      12.023730
5.400000      0.410381      0.411328      10.893449      31.978573      105.992579      8.153356      12.186324
5.500000      0.412823      0.413767      11.001290      32.337623      107.233443      8.244521      12.348551
5.600000      0.415207      0.416147      11.108142      32.691192      108.453059      8.335466      12.510410
5.700000      0.417536      0.418471      11.214009      33.039318      109.651588      8.426192      12.671902
5.800000      0.419809      0.420740      11.318896      33.382043      110.829190      8.516700      12.833026
5.900000      0.422029      0.422956      11.422808      33.719404      111.986029      8.606990      12.993784
6.000000      0.424196      0.425118      11.525748      34.051441      113.122266      8.697063      13.154175
6.100000      0.426312      0.427229      11.627721      34.378195      114.238065      8.786920      13.314199
6.200000      0.428378      0.429289      11.728733      34.699704      115.333590      8.876562      13.473856
6.300000      0.430395      0.431300      11.828787      35.016010      116.409006      8.965990      13.633147
6.400000      0.432363      0.433262      11.927888      35.327153      117.464477      9.055204      13.792070
6.500000      0.434284      0.435177      12.026043      35.633173      118.500170      9.144205      13.950628
6.600000      0.436159      0.437046      12.123254      35.934111      119.516251      9.232995      14.108819
6.700000      0.437989      0.438869      12.219528      36.230008      120.512886      9.321573      14.266643
6.800000      0.439774      0.440647      12.314870      36.520905      121.490242      9.409941      14.424101
6.900000      0.441515      0.442381      12.409285      36.806843      122.448487      9.498099      14.581194
7.000000      0.443214      0.444073      12.502777      37.087863      123.387787      9.586048      14.737920
7.100000      0.444871      0.445722      12.595353      37.364007      124.308312      9.673790      14.894280
7.200000      0.446486      0.447330      12.687017      37.635315      125.210228      9.761324      15.050274
7.300000      0.448062      0.448897      12.777776      37.901830      126.093704      9.848652      15.205903
7.400000      0.449597      0.450425      12.867634      38.163593      126.958908      9.935773      15.361166
7.500000      0.451094      0.451913      12.956597      38.420646      127.806009      10.022690      15.516064
7.600000      0.452553      0.453363      13.044671      38.673030      128.635176      10.109403      15.670596
7.700000      0.453974      0.454775      13.131861      38.920787      129.446577      10.195912      15.824763
7.800000      0.455358      0.456150      13.218173      39.163959      130.240380      10.282219      15.978565
7.900000      0.456706      0.457489      13.303613      39.402588      131.016754      10.368324      16.132002
8.000000      0.458018      0.458792      13.388186      39.636716      131.775867      10.454227      16.285074
8.100000      0.459295      0.460060      13.471898      39.866384      132.517888      10.539930      16.437782
8.200000      0.460538      0.461293      13.554756      40.091634      133.242986      10.625434      16.590125
8.300000      0.461747      0.462493      13.636764      40.312508      133.951327      10.710738      16.742103
8.400000      0.462923      0.463659      13.717928      40.529048      134.643081      10.795845      16.893717
8.500000      0.464067      0.464792      13.798256      40.741296      135.318414      10.880754      17.044968
8.600000      0.465178      0.465893      13.877752      40.949293      135.977494      10.965466      17.195854
8.700000      0.466257      0.466962      13.956423      41.153082      136.620489      11.049982      17.346376
8.800000      0.467306      0.468000      14.034275      41.352703      137.247564      11.134303      17.496534
8.900000      0.468324      0.469008      14.111314      41.548199      137.858887      11.218430      17.646329
9.000000      0.469312      0.469985      14.187545      41.739610      138.454623      11.302362      17.795761
9.100000      0.470271      0.470932      14.262975      41.926980      139.034938      11.386102      17.944829
9.200000      0.471200      0.471850      14.337611      42.110348      139.599997      11.469649      18.093535
9.300000      0.472101      0.472740      14.411458      42.289756      140.149966      11.553005      18.241877
9.400000      0.472973      0.473601      14.484522      42.465246      140.685008      11.636170      18.389857
9.500000      0.473818      0.474434      14.556810      42.636858      141.205287      11.719145      18.537474
9.600000      0.474636      0.475240      14.628327      42.804635      141.710967      11.801930      18.684729
9.700000      0.475427      0.476019      14.699081      42.968615      142.202210      11.884526      18.831621
9.800000      0.476191      0.476772      14.769077      43.128842      142.679178      11.966934      18.978152
9.900000      0.476930      0.477498      14.838322      43.285354      143.142034      12.049155      19.124320
10.000000      0.477643      0.478199      14.906821      43.438193      143.590938      12.131189      19.270127
10.100000      0.478331      0.478874      14.974581      43.587399      144.026050      12.213037      19.415572
10.200000      0.478993      0.479525      15.041609      43.733012      144.447530      12.294700      19.560656
10.300000      0.479632      0.480151      15.107911      43.875073      144.855538      12.376178      19.705379
10.400000      0.480246      0.480753      15.173492      44.013622      145.250231      12.457473      19.849741
10.500000      0.480837      0.481331      15.238360      44.148697      145.631767      12.538584      19.993743
10.600000      0.481405      0.481885      15.302520      44.280340      146.000302      12.619512      20.137383
10.700000      0.481949      0.482417      15.365979      44.408590      146.355994      12.700259      20.280664
10.800000      0.482471      0.482925      15.428743      44.533485      146.698998      12.780825      20.423584
10.900000      0.482971      0.483412      15.490818      44.655065      147.029467      12.861210      20.566144
11.000000      0.483449      0.483876      15.552211      44.773370      147.347556      12.941415      20.708345
11.100000      0.483905      0.484319      15.612928      44.888437      147.653418      13.021441      20.850186
11.200000      0.484340      0.484741      15.672976      45.000306      147.947204      13.101288      20.991668
11.300000      0.484754      0.485141      15.732360      45.109015      148.229067      13.180958      21.132790
11.400000      0.485147      0.485521      15.791086      45.214602      148.499157      13.260450      21.273554
11.500000      0.485520      0.485880      15.849162      45.317106      148.757623      13.339766      21.413959
11.600000      0.485873      0.486219      15.906594      45.416563      149.004613      13.418906      21.554006
11.700000      0.486207      0.486538      15.963386      45.513012      149.240276      13.497870      21.693695
11.800000      0.486521      0.486838      16.019547      45.606490      149.464759      13.576660      21.833025
11.900000      0.486815      0.487119      16.075082      45.697035      149.678207      13.655277      21.971998
12.000000      0.487091      0.487381      16.129997      45.784683      149.880766      13.733720      22.110613
12.100000      0.487349      0.487624      16.184298      45.869471      150.072580      13.811990      22.248871
12.200000      0.487588      0.487849      16.237992      45.951435      150.253791      13.890088      22.386772
12.300000      0.487809      0.488055      16.291085      46.030613      150.424542      13.968015      22.524316
12.400000      0.488013      0.488244      16.343583      46.107040      150.584974      14.045771      22.661503
12.500000      0.488199      0.488416      16.395492      46.180751      150.735228      14.123357      22.798334
12.600000      0.488367      0.488570      16.446819      46.251784      150.875442      14.200774      22.934809
12.700000      0.488519      0.488707      16.497568      46.320172      151.005756      14.278022      23.070929
12.800000      0.488654      0.488827      16.547747      46.385951      151.126305      14.355101      23.206692
12.900000      0.488773      0.488931      16.597362      46.449156      151.237227      14.432013      23.342101
13.000000      0.488875      0.489018      16.646418      46.509823      151.338656      14.508758      23.477154
13.100000      0.488962      0.489090      16.694922      46.567984      151.430727      14.585337      23.611852
13.200000      0.489033      0.489145      16.742879      46.623674      151.513573      14.661750      23.746196
13.300000      0.489088      0.489185      16.790296      46.676928      151.587327      14.737997      23.880186
13.400000      0.489128      0.489210      16.837178      46.727779      151.652118      14.814081      24.013821
13.500000      0.489153      0.489220      16.883531      46.776261      151.708078      14.890000      24.147103
13.600000      0.489163      0.489215      16.929362      46.822406      151.755334      14.965756      24.280031
13.700000      0.489159      0.489195      16.974676      46.866248      151.794017      15.041349      24.412606
13.800000      0.489140      0.489161      17.019479      46.907819      151.824251      15.116781      24.544828
13.900000      0.489107      0.489112      17.063777      46.947152      151.846163      15.192051      24.676698
14.000000      0.489060      0.489050      17.107576      46.984278      151.859878      15.267159      24.808215
14.100000      0.488999      0.488973      17.150880      47.019231      151.865519      15.342108      24.939380
14.200000      0.488925      0.488883      17.193697      47.052041      151.863210      15.416897      25.070193
14.300000      0.488837      0.488780      17.236032      47.082739      151.853071      15.491527      25.200655
14.400000      0.488737      0.488664      17.277890      47.111358      151.835223      15.565998      25.330765
14.500000      0.488623      0.488535      17.319278      47.137928      151.809786      15.640311      25.460524
14.600000      0.488497      0.488392      17.360200      47.162479      151.776878      15.714467      25.589933
14.700000      0.488358      0.488238      17.400663      47.185042      151.736617      15.788466      25.718991
14.800000      0.488207      0.488070      17.440671      47.205647      151.689118      15.862309      25.847700
14.900000      0.488044      0.487891      17.480231      47.224324      151.634496      15.935996      25.976058
15.000000      0.487868      0.487700      17.519348      47.241102      151.572866      16.009528      26.104067
15.100000      0.487681      0.487497      17.558027      47.256011      151.504341      16.082905      26.231727
15.200000      0.487482      0.487282      17.596275      47.269079      151.429033      16.156129      26.359038
15.300000      0.487272      0.487055      17.634095      47.280336      151.347052      16.229199      26.486001
15.400000      0.487050      0.486818      17.671494      47.289810      151.258508      16.302117      26.612615
15.500000      0.486818      0.486569      17.708477      47.297529      151.163510      16.374882      26.738882
15.600000      0.486574      0.486309      17.745049      47.303521      151.062166      16.447496      26.864800
15.700000      0.486320      0.486039      17.781215      47.307814      150.954582      16.519958      26.990372
15.800000      0.486055      0.485757      17.816982      47.310436      150.840864      16.592270      27.115597
15.900000      0.485780      0.485466      17.852353      47.311413      150.721115      16.664432      27.240475
16.000000      0.485494      0.485164      17.887334      47.310773      150.595441      16.736444      27.365006
16.100000      0.485198      0.484852      17.921930      47.308542      150.463942      16.808307      27.489192
